"Time (ps)"	"Counts per bin"
0	89096
50000000	89131
100000000	89296
150000000	88907
200000000	89539
250000000	89028
300000000	89297
350000000	89233
400000000	89845
450000000	89638
500000000	89650
550000000	89108
600000000	89552
650000000	89513
700000000	89139
750000000	89626
800000000	89365
850000000	88656
900000000	89841
950000000	89505
1000000000	89076
1050000000	89480
1100000000	89530
1150000000	89609
1200000000	89109
1250000000	89574
1300000000	89716
1350000000	90490
1400000000	89999
1450000000	89173
1500000000	89693
1550000000	89204
1600000000	89339
1650000000	89281
1700000000	89327
1750000000	89682
1800000000	89973
1850000000	89767
1900000000	89388
1950000000	89639
2000000000	90416
2050000000	89299
2100000000	89884
2150000000	89425
2200000000	89006
2250000000	89709
2300000000	89333
2350000000	89980
2400000000	90152
2450000000	89651
2500000000	89400
2550000000	88965
2600000000	89562
2650000000	89894
2700000000	89392
2750000000	89335
2800000000	89083
2850000000	88880
2900000000	89207
2950000000	89612
3000000000	89165
3050000000	89151
3100000000	89273
3150000000	89667
3200000000	89254
3250000000	89524
3300000000	89359
3350000000	89069
3400000000	89533
3450000000	89187
3500000000	89504
3550000000	89434
3600000000	89452
3650000000	89327
3700000000	89325
3750000000	89159
3800000000	88544
3850000000	88959
3900000000	88659
3950000000	89443
4000000000	88894
4050000000	88872
4100000000	88602
4150000000	88997
4200000000	88097
4250000000	89071
4300000000	89190
4350000000	88485
4400000000	88960
4450000000	88601
4500000000	88868
4550000000	89105
4600000000	88805
4650000000	88700
4700000000	88902
4750000000	88704
4800000000	89050
4850000000	89026
4900000000	88709
4950000000	88672
5000000000	89100
5050000000	88532
5100000000	88866
5150000000	88729
5200000000	88742
5250000000	88812
5300000000	88783
5350000000	88468
5400000000	88663
5450000000	88634
5500000000	89154
5550000000	88540
5600000000	88704
5650000000	88406
5700000000	89089
5750000000	89003
5800000000	88940
5850000000	89278
5900000000	88635
5950000000	88900
6000000000	88743
6050000000	88249
6100000000	88602
6150000000	89187
6200000000	88690
6250000000	88728
6300000000	88649
6350000000	89297
6400000000	88768
6450000000	89189
6500000000	88525
6550000000	88968
6600000000	89089
6650000000	89186
6700000000	88587
6750000000	88936
6800000000	88642
6850000000	89016
6900000000	89153
6950000000	89164
7000000000	89203
7050000000	89198
7100000000	89078
7150000000	89393
7200000000	89274
7250000000	89013
7300000000	89443
7350000000	89286
7400000000	89513
7450000000	89403
7500000000	89010
7550000000	89490
7600000000	88868
7650000000	89483
7700000000	89413
7750000000	89585
7800000000	89841
7850000000	89156
7900000000	89799
7950000000	89408
8000000000	89407
8050000000	89498
8100000000	88718
8150000000	89564
8200000000	89447
8250000000	90263
8300000000	89260
8350000000	89586
8400000000	89481
8450000000	89890
8500000000	89107
8550000000	90334
8600000000	89414
8650000000	89879
8700000000	89915
8750000000	89919
8800000000	90015
8850000000	89424
8900000000	89394
8950000000	90100
9000000000	89601
9050000000	89787
9100000000	90248
9150000000	89638
9200000000	89534
9250000000	88926
9300000000	88871
9350000000	89541
9400000000	89523
9450000000	89209
9500000000	89132
9550000000	89144
9600000000	88968
9650000000	89040
9700000000	89741
9750000000	89524
9800000000	88473
9850000000	89573
9900000000	89785
9950000000	89636
10000000000	89798
10050000000	89399
10100000000	89127
10150000000	89595
10200000000	89828
10250000000	89719
10300000000	89248
10350000000	89058
10400000000	89322
10450000000	89242
10500000000	89393
10550000000	89408
10600000000	89660
10650000000	89561
10700000000	89648
10750000000	89315
10800000000	89000
10850000000	88823
10900000000	89241
10950000000	89084
11000000000	88865
11050000000	89407
11100000000	88896
11150000000	89422
11200000000	89222
11250000000	89338
11300000000	89345
11350000000	89505
11400000000	88887
11450000000	88977
11500000000	88820
11550000000	89250
11600000000	89247
11650000000	88915
11700000000	88854
11750000000	88910
11800000000	88785
11850000000	88758
11900000000	88565
11950000000	88815
12000000000	89471
12050000000	89614
12100000000	88770
12150000000	89044
12200000000	88408
12250000000	89250
12300000000	89231
12350000000	88848
12400000000	88848
12450000000	88434
12500000000	88645
12550000000	88505
12600000000	88715
12650000000	88610
12700000000	88581
12750000000	88979
12800000000	89340
12850000000	88859
12900000000	89014
12950000000	88606
13000000000	88630
13050000000	89404
13100000000	88957
13150000000	88240
13200000000	89095
13250000000	89036
13300000000	88648
13350000000	88973
13400000000	88423
13450000000	89217
13500000000	89056
13550000000	88578
13600000000	89096
13650000000	88657
13700000000	88782
13750000000	88678
13800000000	88724
13850000000	89262
13900000000	88991
13950000000	88880
14000000000	89248
14050000000	88696
14100000000	89160
14150000000	88884
14200000000	88963
14250000000	88706
14300000000	89157
14350000000	89050
14400000000	88968
14450000000	89291
14500000000	89079
14550000000	89072
14600000000	89460
14650000000	89468
14700000000	89486
14750000000	89101
14800000000	88904
14850000000	89133
14900000000	89352
14950000000	89465
15000000000	89006
15050000000	89356
15100000000	89281
15150000000	89915
15200000000	89669
15250000000	89198
15300000000	89062
15350000000	89475
15400000000	89307
15450000000	89717
15500000000	89782
15550000000	89696
15600000000	88884
15650000000	89572
15700000000	89344
15750000000	89608
15800000000	90231
15850000000	89771
15900000000	89602
15950000000	89881
16000000000	89684
16050000000	90100
16100000000	89483
16150000000	89647
16200000000	89787
16250000000	89811
16300000000	89730
16350000000	89649
16400000000	89973
16450000000	89491
16500000000	89615
16550000000	90057
16600000000	89885
16650000000	89748
16700000000	89428
16750000000	89960
16800000000	89627
16850000000	89313
16900000000	89138
16950000000	89974
17000000000	89303
17050000000	89147
17100000000	89206
17150000000	89697
17200000000	89805
17250000000	90068
17300000000	89155
17350000000	89274
17400000000	88758
17450000000	88794
17500000000	89493
17550000000	88682
17600000000	89090
17650000000	89379
17700000000	89526
17750000000	89308
17800000000	89107
17850000000	88752
17900000000	89123
17950000000	89235
18000000000	89729
18050000000	88706
18100000000	89636
18150000000	88580
18200000000	89907
18250000000	89261
18300000000	89064
18350000000	89071
18400000000	88821
18450000000	88784
18500000000	89007
18550000000	88484
18600000000	88597
18650000000	88736
18700000000	88963
18750000000	88933
18800000000	88601
18850000000	89159
18900000000	89144
18950000000	88649
19000000000	88565
19050000000	89402
19100000000	88627
19150000000	88460
19200000000	88509
19250000000	88820
19300000000	88766
19350000000	88307
19400000000	88539
19450000000	88439
19500000000	88737
19550000000	88680
19600000000	88929
19650000000	89293
19700000000	88296
19750000000	88602
19800000000	88770
19850000000	88446
19900000000	88998
19950000000	87995
20000000000	88482
20050000000	88568
20100000000	88968
20150000000	88289
20200000000	89073
20250000000	88898
20300000000	88835
20350000000	88743
20400000000	88596
20450000000	89291
20500000000	88208
20550000000	89160
20600000000	88947
20650000000	88594
20700000000	89054
20750000000	89089
20800000000	89159
20850000000	89360
20900000000	88892
20950000000	89210
21000000000	89193
21050000000	89486
21100000000	88888
21150000000	88997
21200000000	89189
21250000000	89228
21300000000	89030
21350000000	89166
21400000000	89004
21450000000	89563
21500000000	88984
21550000000	88858
21600000000	89187
21650000000	89112
21700000000	89583
21750000000	89485
21800000000	89094
21850000000	89339
21900000000	89303
21950000000	89261
22000000000	89562
22050000000	89346
22100000000	89333
22150000000	89331
22200000000	89159
22250000000	89045
22300000000	89161
22350000000	89335
22400000000	88836
22450000000	88905
22500000000	89772
22550000000	89709
22600000000	89406
22650000000	89461
22700000000	89072
22750000000	89822
22800000000	89698
22850000000	89966
22900000000	89373
22950000000	89220
23000000000	89483
23050000000	89456
23100000000	89513
23150000000	89493
23200000000	90048
23250000000	89229
23300000000	89692
23350000000	88952
23400000000	89533
23450000000	90037
23500000000	89815
23550000000	89205
23600000000	89669
23650000000	89660
23700000000	89488
23750000000	89057
23800000000	88955
23850000000	89177
23900000000	89781
23950000000	89266
24000000000	89590
24050000000	89213
24100000000	89594
24150000000	89579
24200000000	89226
24250000000	88981
24300000000	89467
24350000000	89829
24400000000	89196
24450000000	89301
24500000000	89089
24550000000	89165
24600000000	89370
24650000000	88999
24700000000	89210
24750000000	89050
24800000000	88940
24850000000	89432
24900000000	88857
24950000000	89514
25000000000	89140
25050000000	88883
25100000000	89245
25150000000	88879
25200000000	89058
25250000000	88504
25300000000	88477
25350000000	89212
25400000000	88837
25450000000	89515
25500000000	88708
25550000000	88585
25600000000	89032
25650000000	88498
25700000000	88789
25750000000	88533
25800000000	88771
25850000000	88791
25900000000	88570
25950000000	89081
26000000000	88709
26050000000	87977
26100000000	88794
26150000000	88485
26200000000	89364
26250000000	88408
26300000000	88950
26350000000	88917
26400000000	88718
26450000000	88858
26500000000	88566
26550000000	88306
26600000000	88783
26650000000	88917
26700000000	88767
26750000000	89266
26800000000	88918
26850000000	88205
26900000000	88740
26950000000	89029
27000000000	88723
27050000000	88095
27100000000	88229
27150000000	88991
27200000000	88500
27250000000	88546
27300000000	89124
27350000000	88959
27400000000	88941
27450000000	89011
27500000000	88698
27550000000	88771
27600000000	88291
27650000000	88609
27700000000	88810
27750000000	89227
27800000000	88742
27850000000	88890
27900000000	88660
27950000000	88476
28000000000	88844
28050000000	88707
28100000000	88780
28150000000	89164
28200000000	88926
28250000000	89455
28300000000	89092
28350000000	88555
28400000000	88530
28450000000	88831
28500000000	89216
28550000000	89294
28600000000	89105
28650000000	88354
28700000000	88779
28750000000	89285
28800000000	89047
28850000000	89248
28900000000	89169
28950000000	89386
29000000000	89699
29050000000	89119
29100000000	89499
29150000000	89074
29200000000	89474
29250000000	88957
29300000000	89005
29350000000	89538
29400000000	89233
29450000000	88837
29500000000	89855
29550000000	89117
29600000000	89188
29650000000	89256
29700000000	89247
29750000000	89181
29800000000	89206
29850000000	89867
29900000000	88758
29950000000	89617
30000000000	89416
30050000000	89211
30100000000	89488
30150000000	89928
30200000000	89584
30250000000	89454
30300000000	89764
30350000000	89055
30400000000	89192
30450000000	89796
30500000000	89808
30550000000	89421
30600000000	89417
30650000000	89365
30700000000	89482
30750000000	88987
30800000000	89441
30850000000	89218
30900000000	89449
30950000000	89488
31000000000	89459
31050000000	89312
31100000000	89466
31150000000	89565
31200000000	89457
31250000000	89168
31300000000	89214
31350000000	88785
31400000000	89326
31450000000	89316
31500000000	88924
31550000000	89313
31600000000	89207
31650000000	88852
31700000000	89057
31750000000	89726
31800000000	89090
31850000000	89059
31900000000	88873
31950000000	89037
32000000000	89214
32050000000	88901
32100000000	89095
32150000000	89136
32200000000	89146
32250000000	89247
32300000000	88568
32350000000	89071
32400000000	89287
32450000000	88578
32500000000	88958
32550000000	88512
32600000000	88892
32650000000	88685
32700000000	88500
32750000000	89097
32800000000	88851
32850000000	88768
32900000000	88565
32950000000	88099
33000000000	88438
33050000000	88772
33100000000	88575
33150000000	88286
33200000000	88506
33250000000	88495
33300000000	88789
33350000000	88523
33400000000	88836
33450000000	89286
33500000000	88496
33550000000	88530
33600000000	88648
33650000000	88644
33700000000	88757
33750000000	88358
33800000000	89122
33850000000	88608
33900000000	88852
33950000000	88448
34000000000	88768
34050000000	88726
34100000000	88497
34150000000	88533
34200000000	88347
34250000000	88827
34300000000	88839
34350000000	88941
34400000000	88792
34450000000	87996
34500000000	88644
34550000000	88559
34600000000	88851
34650000000	88961
34700000000	88518
34750000000	88485
34800000000	89009
34850000000	88943
34900000000	88467
34950000000	88481
35000000000	88729
35050000000	89181
35100000000	88903
35150000000	89117
35200000000	88367
35250000000	89339
35300000000	89601
35350000000	88867
35400000000	88839
35450000000	88761
35500000000	88357
35550000000	89106
35600000000	88960
35650000000	89102
35700000000	88543
35750000000	88660
35800000000	88850
35850000000	88878
35900000000	89156
35950000000	89054
36000000000	89427
36050000000	89467
36100000000	89054
36150000000	89016
36200000000	89068
36250000000	88910
36300000000	89632
36350000000	89085
36400000000	88907
36450000000	89787
36500000000	89513
36550000000	89157
36600000000	89472
36650000000	89804
36700000000	89298
36750000000	89012
36800000000	89263
36850000000	89413
36900000000	89395
36950000000	89400
37000000000	89593
37050000000	89382
37100000000	89378
37150000000	89048
37200000000	89698
37250000000	88960
37300000000	89049
37350000000	89064
37400000000	90033
37450000000	89094
37500000000	88967
37550000000	89283
37600000000	89234
37650000000	89693
37700000000	89054
37750000000	89268
37800000000	89845
37850000000	89718
37900000000	89528
37950000000	89462
38000000000	89325
38050000000	88837
38100000000	89280
38150000000	89534
38200000000	89478
38250000000	89429
38300000000	89576
38350000000	89850
38400000000	89489
38450000000	88889
38500000000	89745
38550000000	89013
38600000000	89561
38650000000	89313
38700000000	89311
38750000000	89339
38800000000	89062
38850000000	89395
38900000000	89551
38950000000	88813
39000000000	88658
39050000000	89070
39100000000	89168
39150000000	89366
39200000000	89217
39250000000	88972
39300000000	88737
39350000000	88986
39400000000	89380
39450000000	89120
39500000000	89209
39550000000	88626
39600000000	89037
39650000000	88919
39700000000	89075
39750000000	88738
39800000000	89126
39850000000	89071
39900000000	88902
39950000000	88793
40000000000	88855
40050000000	88607
40100000000	88621
40150000000	89309
40200000000	88394
40250000000	88379
40300000000	88936
40350000000	88974
40400000000	88809
40450000000	88181
40500000000	88874
40550000000	88861
40600000000	88403
40650000000	88783
40700000000	88149
40750000000	89158
40800000000	88516
40850000000	88736
40900000000	88963
40950000000	88327
41000000000	88875
41050000000	88535
41100000000	88283
41150000000	88239
41200000000	88767
41250000000	88980
41300000000	88807
41350000000	88715
41400000000	88471
41450000000	89090
41500000000	88828
41550000000	88969
41600000000	89265
41650000000	88706
41700000000	88734
41750000000	88116
41800000000	88585
41850000000	88815
41900000000	88598
41950000000	89087
42000000000	88943
42050000000	88294
42100000000	89031
42150000000	88572
42200000000	88840
42250000000	88739
42300000000	88473
42350000000	89138
42400000000	89100
42450000000	88682
42500000000	89165
42550000000	89131
42600000000	89195
42650000000	88996
42700000000	88592
42750000000	89467
42800000000	88793
42850000000	89000
42900000000	88935
42950000000	89321
43000000000	88565
43050000000	89210
43100000000	89202
43150000000	88790
43200000000	89263
43250000000	88787
43300000000	88804
43350000000	89111
43400000000	89102
43450000000	89212
43500000000	89479
43550000000	89217
43600000000	89413
43650000000	89248
43700000000	89143
43750000000	89272
43800000000	89271
43850000000	89605
43900000000	89878
43950000000	89297
44000000000	89475
44050000000	89163
44100000000	89652
44150000000	89165
44200000000	89044
44250000000	89300
44300000000	89203
44350000000	88999
44400000000	89931
44450000000	89191
44500000000	89483
44550000000	89680
44600000000	89023
44650000000	89613
44700000000	89458
44750000000	89424
44800000000	89814
44850000000	89382
44900000000	89485
44950000000	89407
45000000000	89053
45050000000	89180
45100000000	88787
45150000000	89125
45200000000	89293
45250000000	89499
45300000000	90051
45350000000	89590
45400000000	89549
45450000000	88867
45500000000	89152
45550000000	89290
45600000000	89308
45650000000	89591
45700000000	88958
45750000000	89335
45800000000	89266
45850000000	89206
45900000000	89504
45950000000	89113
46000000000	89053
46050000000	89285
46100000000	89101
46150000000	88837
46200000000	88705
46250000000	89135
46300000000	88806
46350000000	88516
46400000000	88929
46450000000	88935
46500000000	89016
46550000000	88747
46600000000	89095
46650000000	88646
46700000000	89108
46750000000	87944
46800000000	88666
46850000000	88807
46900000000	88339
46950000000	89188
47000000000	88490
47050000000	89091
47100000000	88802
47150000000	88742
47200000000	89016
47250000000	89163
47300000000	88688
47350000000	88634
47400000000	88602
47450000000	88319
47500000000	88653
47550000000	89104
47600000000	88678
47650000000	88956
47700000000	88135
47750000000	88661
47800000000	88842
47850000000	88739
47900000000	88163
47950000000	88446
48000000000	88603
48050000000	88508
48100000000	88663
48150000000	88473
48200000000	88428
48250000000	89255
48300000000	88122
48350000000	88359
48400000000	88724
48450000000	88739
48500000000	88513
48550000000	88675
48600000000	88812
48650000000	88303
48700000000	88661
48750000000	88378
48800000000	88139
48850000000	88680
48900000000	88140
48950000000	88652
49000000000	88265
49050000000	88435
49100000000	88807
49150000000	89297
49200000000	88892
49250000000	88619
49300000000	88920
49350000000	89356
49400000000	89003
49450000000	88499
49500000000	88320
49550000000	89043
49600000000	88340
49650000000	88650
49700000000	89033
49750000000	88863
49800000000	89165
49850000000	89214
49900000000	89308
49950000000	89143
50000000000	89053
50050000000	89035
50100000000	89376
50150000000	88748
50200000000	89617
50250000000	89011
50300000000	89239
50350000000	89300
50400000000	89799
50450000000	89541
50500000000	89589
50550000000	89119
50600000000	89497
50650000000	89564
50700000000	89150
50750000000	89572
50800000000	89404
50850000000	88527
50900000000	89809
50950000000	89612
51000000000	88877
51050000000	89562
51100000000	89542
51150000000	89484
51200000000	89220
51250000000	89388
51300000000	89754
51350000000	90239
51400000000	90226
51450000000	89169
51500000000	89682
51550000000	89204
51600000000	89171
51650000000	89395
51700000000	89276
51750000000	89623
51800000000	89963
51850000000	89664
51900000000	89460
51950000000	89585
52000000000	90212
52050000000	89471
52100000000	89852
52150000000	89333
52200000000	89047
52250000000	89730
52300000000	89245
52350000000	89991
52400000000	90062
52450000000	89605
52500000000	89477
52550000000	88877
52600000000	89422
52650000000	89998
52700000000	89378
52750000000	89377
52800000000	89009
52850000000	88892
52900000000	89202
52950000000	89553
53000000000	89145
53050000000	89049
53100000000	89374
53150000000	89621
53200000000	89412
53250000000	89268
53300000000	89386
53350000000	89043
53400000000	89399
53450000000	89385
53500000000	89316
53550000000	89512
53600000000	89514
53650000000	89162
53700000000	89412
53750000000	89129
53800000000	88589
53850000000	88828
53900000000	88631
53950000000	89409
54000000000	88762
54050000000	89036
54100000000	88528
54150000000	88939
54200000000	88066
54250000000	89056
54300000000	89157
54350000000	88530
54400000000	88954
54450000000	88462
54500000000	88980
54550000000	89051
54600000000	88710
54650000000	88760
54700000000	88824
54750000000	88790
54800000000	88893
54850000000	88923
54900000000	88881
54950000000	88550
55000000000	89169
55050000000	88595
55100000000	88748
55150000000	88642
55200000000	88799
55250000000	88747
55300000000	88761
55350000000	88431
55400000000	88667
55450000000	88455
55500000000	89243
55550000000	88488
55600000000	88706
55650000000	88548
55700000000	88965
55750000000	88860
55800000000	89065
55850000000	89304
55900000000	88535
55950000000	88874
56000000000	88678
56050000000	88309
